Sample : 
Scan number: 3083

Wavelength: 532
Polarization :   
Power: 0
Mirror sp. : 8
Ch. duration : 6.166
Scan amplitude : 49.31



661636
371485
675259
1556819
1328840
1800776
1982524
1440086
1610157
411342
318507
158150
33117
20147
14217
4889
1974
2474
1189
355
492
349
127
118
131
63
50
46
36
23
35
17
16
18
10
11
13
9
5
22
4
9
9
11
10
10
4
9
6
12
6
9
11
12
32
25
28
37
70
49
78
57
61
58
39
38
29
40
38
57
64
74
62
64
39
29
16
13
13
13
12
7
14
15
9
12
9
17
7
21
17
8
12
14
12
17
17
24
20
16
25
33
34
40
45
62
75
87
136
182
240
289
483
775
978
1793
3529
5042
8793
23714
42458
68080
211442
414849
598350
1254068
1777413
2072764
2384929
2028882
1780533
973345
335856
220050
70778
22490
15815
8427
3665
2416
1685
844
564
413
278
168
146
101
91
62
39
31
36
24
31
33
20
20
19
21
8
9
13
9
11
5
14
5
4
3
14
13
7
10
10
8
18
16
11
18
31
40
53
45
59
57
71
68
50
45
43
47
44
58
66
76
62
58
48
44
26
20
10
19
15
7
13
11
7
9
20
5
11
11
9
12
22
11
22
12
12
13
15
23
20
30
35
30
33
43
54
78
76
109
147
179
261
352
519
784
1126
2034
3553
5258
10329
22584
40465
82230
206132
382610
667643
1222800
1714538
2160177
2404006
2165198
