Sample : 
Scan number: 3438

Wavelength: 532
Polarization :   
Power: 0
Mirror sp. : 8
Ch. duration : 6.876
Scan amplitude : 49.31



7200237
7064238
6901977
6992438
6988086
6909791
7088472
7104173
7094297
6281547
9860035
6883069
1826061
943932
731281
292649
136251
147786
81891
34516
37318
26494
13833
11667
10124
6301
5100
4738
3200
2471
2487
1934
1472
1352
1137
995
900
794
682
583
564
512
449
436
399
340
339
370
303
324
297
308
333
302
426
518
517
738
985
1074
1272
1277
1143
1120
858
893
807
934
1124
1120
1201
1234
1051
928
677
624
507
378
356
357
333
351
335
361
381
414
457
442
521
558
675
706
772
859
985
1026
1205
1431
1601
1881
2288
2611
3121
4124
4662
5808
8051
10177
12480
18791
25757
33593
54969
85400
114794
192190
342682
501694
877414
2007354
3673008
6652972
5752021
7056238
6993763
7125235
6917858
6890212
6766777
7005843
7054999
6928637
7105656
6726839
6329384
5501218
3158060
1504863
660781
407360
254438
139531
90108
65022
41733
28635
22042
15787
11368
9143
7131
5285
4215
3575
2835
2434
2075
1715
1378
1155
1055
911
832
712
598
619
512
479
425
394
384
355
326
309
297
303
306
308
326
306
423
489
544
800
995
1104
1300
1254
1236
1088
887
902
858
917
1008
1121
1203
1248
1175
973
759
632
508
407
355
352
325
291
359
368
381
360
406
453
511
565
593
591
727
779
870
964
1088
1241
1421
1552
1916
2182
2527
3077
3721
4660
5876
7273
9382
12663
16595
22470
33041
47707
68858
106463
164159
248658
410986
732449
1271059
2413005
5204366
10142233
8233397
7032792
7074108
6957345
7158618
6835783
